PE UV                   SPECTRUM    ASCII       PEDS        1.60        
  -1
CSIFLAT.DAT
17/02/09
10:09:16.00
17/02/09
10:19:27.00


300.000000
1









4444

SCAN
1
1


0.0

5.00
MANUAL



UV/VIS




































#HDR
-1
-1
#GR
NM
%R
0.00002384185791015625
0.0
2000.000000
5.000000
341
8
68.260825
32.290263
#DATA
2000.000000	47.576954 
1995.000000	47.672098 
1990.000000	47.790211 
1985.000000	47.553073 
1980.000000	47.426585 
1975.000000	47.276969 
1970.000000	47.262004 
1965.000000	47.252059 
1960.000000	47.349146 
1955.000000	47.330074 
1950.000000	47.398853 
1945.000000	47.486657 
1940.000000	47.480755 
1935.000000	47.469864 
1930.000000	47.511626 
1925.000000	47.514108 
1920.000000	47.361961 
1915.000000	47.394942 
1910.000000	47.432146 
1905.000000	47.458971 
1900.000000	47.506515 
1895.000000	47.426837 
1890.000000	47.439988 
1885.000000	47.502746 
1880.000000	47.425340 
1875.000000	47.405328 
1870.000000	47.560158 
1865.000000	47.495231 
1860.000000	47.508645 
1855.000000	47.524458 
1850.000000	47.530192 
1845.000000	47.603421 
1840.000000	47.545148 
1835.000000	47.577000 
1830.000000	47.588740 
1825.000000	47.515048 
1820.000000	47.548864 
1815.000000	47.523017 
1810.000000	47.568204 
1805.000000	47.536675 
1800.000000	47.520025 
1795.000000	47.608173 
1790.000000	47.594516 
1785.000000	47.543748 
1780.000000	47.645004 
1775.000000	47.616213 
1770.000000	47.690362 
1765.000000	47.600166 
1760.000000	47.598694 
1755.000000	47.728549 
1750.000000	47.594465 
1745.000000	47.685653 
1740.000000	47.606772 
1735.000000	47.657169 
1730.000000	47.634778 
1725.000000	47.660106 
1720.000000	47.620699 
1715.000000	47.595592 
1710.000000	47.692781 
1705.000000	47.667677 
1700.000000	47.597682 
1695.000000	47.645959 
1690.000000	47.664215 
1685.000000	47.663636 
1680.000000	47.631504 
1675.000000	47.606488 
1670.000000	47.750468 
1665.000000	47.623390 
1660.000000	47.681397 
1655.000000	47.682954 
1650.000000	47.549672 
1645.000000	47.722856 
1640.000000	47.726331 
1635.000000	47.643610 
1630.000000	47.692390 
1625.000000	47.711427 
1620.000000	47.688250 
1615.000000	47.644011 
1610.000000	47.686651 
1605.000000	47.733694 
1600.000000	47.696903 
1595.000000	47.705524 
1590.000000	47.686278 
1585.000000	47.699974 
1580.000000	47.757107 
1575.000000	47.679134 
1570.000000	47.687732 
1565.000000	47.710169 
1560.000000	47.693601 
1555.000000	47.670326 
1550.000000	47.731252 
1545.000000	47.739271 
1540.000000	47.726016 
1535.000000	47.700093 
1530.000000	47.709440 
1525.000000	47.716160 
1520.000000	47.770792 
1515.000000	47.715057 
1510.000000	47.726531 
1505.000000	47.709420 
1500.000000	47.762050 
1495.000000	47.773154 
1490.000000	47.719880 
1485.000000	47.714484 
1480.000000	47.748823 
1475.000000	47.761926 
1470.000000	47.753198 
1465.000000	47.758618 
1460.000000	47.770568 
1455.000000	47.723895 
1450.000000	47.763867 
1445.000000	47.766331 
1440.000000	47.743201 
1435.000000	47.740523 
1430.000000	47.741210 
1425.000000	47.735462 
1420.000000	47.750195 
1415.000000	47.806652 
1410.000000	47.818799 
1405.000000	47.788802 
1400.000000	47.791598 
1395.000000	47.821286 
1390.000000	47.871842 
1385.000000	47.863068 
1380.000000	47.866269 
1375.000000	47.915307 
1370.000000	47.873484 
1365.000000	47.896532 
1360.000000	47.945624 
1355.000000	47.909680 
1350.000000	47.937864 
1345.000000	47.962779 
1340.000000	47.917694 
1335.000000	47.952796 
1330.000000	48.009727 
1325.000000	48.048227 
1320.000000	48.010743 
1315.000000	47.981099 
1310.000000	48.047874 
1305.000000	48.035247 
1300.000000	48.087697 
1295.000000	48.106764 
1290.000000	48.066838 
1285.000000	48.145982 
1280.000000	48.075331 
1275.000000	48.059039 
1270.000000	48.113165 
1265.000000	48.105077 
1260.000000	48.044126 
1255.000000	48.134509 
1250.000000	48.050427 
1245.000000	48.005804 
1240.000000	47.913400 
1235.000000	47.961190 
1230.000000	47.832251 
1225.000000	47.667357 
1220.000000	47.290176 
1215.000000	46.775471 
1210.000000	46.402052 
1205.000000	46.175454 
1200.000000	45.735693 
1195.000000	45.275322 
1190.000000	45.061278 
1185.000000	44.577596 
1180.000000	44.341539 
1175.000000	43.850771 
1170.000000	43.360186 
1165.000000	42.967605 
1160.000000	42.469592 
1155.000000	41.962380 
1150.000000	41.445514 
1145.000000	41.121600 
1140.000000	40.414241 
1135.000000	39.858912 
1130.000000	39.258168 
1125.000000	38.695827 
1120.000000	38.078923 
1115.000000	37.517320 
1110.000000	37.021714 
1105.000000	36.282804 
1100.000000	35.663835 
1095.000000	35.128670 
1090.000000	34.698275 
1085.000000	34.436825 
1080.000000	34.286259 
1075.000000	34.012540 
1070.000000	33.969847 
1065.000000	33.956706 
1060.000000	33.900007 
1055.000000	33.946807 
1050.000000	33.928701 
1045.000000	33.982117 
1040.000000	33.949272 
1035.000000	34.046817 
1030.000000	34.093319 
1025.000000	34.006867 
1020.000000	34.056290 
1015.000000	34.045481 
1010.000000	34.152617 
1005.000000	34.255945 
1000.000000	34.114945 
995.000000	 34.173378 
990.000000	 34.257304 
985.000000	 34.289764 
980.000000	 34.158848 
975.000000	 34.263695 
970.000000	 34.236216 
965.000000	 34.234659 
960.000000	 34.190761 
955.000000	 34.302097 
950.000000	 34.235651 
945.000000	 34.486604 
940.000000	 34.345203 
935.000000	 34.305615 
930.000000	 34.575333 
925.000000	 34.571438 
920.000000	 34.451138 
915.000000	 34.616546 
910.000000	 34.576555 
905.000000	 34.712979 
900.000000	 34.542554 
895.000000	 34.703412 
890.000000	 34.409337 
885.000000	 35.104750 
880.000000	 34.358181 
875.000000	 34.466345 
870.000000	 34.863899 
865.000000	 35.124958 
860.000000	 34.808782 
855.000000	 32.290263 
850.000000	 32.367426 
845.000000	 32.398071 
840.000000	 32.461921 
835.000000	 32.459034 
830.000000	 32.540652 
825.000000	 32.572705 
820.000000	 32.627174 
815.000000	 32.651456 
810.000000	 32.713138 
805.000000	 32.727999 
800.000000	 32.737951 
795.000000	 32.789670 
790.000000	 32.856359 
785.000000	 32.902464 
780.000000	 32.953037 
775.000000	 33.031382 
770.000000	 33.097972 
765.000000	 33.120752 
760.000000	 33.176204 
755.000000	 33.235728 
750.000000	 33.286696 
745.000000	 33.337910 
740.000000	 33.433202 
735.000000	 33.489115 
730.000000	 33.561469 
725.000000	 33.583036 
720.000000	 33.699343 
715.000000	 33.782143 
710.000000	 33.874529 
705.000000	 33.930610 
700.000000	 34.024348 
695.000000	 34.106754 
690.000000	 34.215134 
685.000000	 34.219393 
680.000000	 34.320074 
675.000000	 34.384104 
670.000000	 34.468553 
665.000000	 34.563476 
660.000000	 34.633966 
655.000000	 34.739840 
650.000000	 34.854360 
645.000000	 34.927769 
640.000000	 35.022534 
635.000000	 35.134425 
630.000000	 35.236796 
625.000000	 35.334408 
620.000000	 35.427446 
615.000000	 35.558621 
610.000000	 35.671882 
605.000000	 35.785062 
600.000000	 35.895134 
595.000000	 36.014958 
590.000000	 36.154293 
585.000000	 36.312754 
580.000000	 36.446051 
575.000000	 36.605154 
570.000000	 36.778357 
565.000000	 37.060511 
560.000000	 37.367614 
555.000000	 37.144303 
550.000000	 37.303181 
545.000000	 37.468227 
540.000000	 37.633193 
535.000000	 37.822774 
530.000000	 38.037298 
525.000000	 38.288476 
520.000000	 38.601170 
515.000000	 38.912066 
510.000000	 39.211052 
505.000000	 39.444791 
500.000000	 39.662123 
495.000000	 39.793256 
490.000000	 40.064263 
485.000000	 40.410755 
480.000000	 40.754808 
475.000000	 41.184507 
470.000000	 41.621469 
465.000000	 42.023649 
460.000000	 42.473644 
455.000000	 42.837159 
450.000000	 43.327673 
445.000000	 43.822546 
440.000000	 44.305445 
435.000000	 44.881437 
430.000000	 45.452987 
425.000000	 46.147489 
420.000000	 47.034619 
415.000000	 48.018200 
410.000000	 49.108538 
405.000000	 50.323376 
400.000000	 51.823724 
395.000000	 53.618469 
390.000000	 55.684206 
385.000000	 57.733953 
380.000000	 58.919981 
375.000000	 58.786725 
370.000000	 57.739168 
365.000000	 56.669668 
360.000000	 56.222284 
355.000000	 55.831923 
350.000000	 55.871245 
345.000000	 56.022173 
340.000000	 56.287725 
335.000000	 56.495577 
330.000000	 57.076424 
325.000000	 57.773106 
320.000000	 58.705262 
315.000000	 60.287246 
310.000000	 62.029267 
305.000000	 64.991303 
300.000000	 68.260825 

